Experiment	bias spectroscopy	
Saved Date	31.03.2023 14:44:30	
User		
Date		
X (m)	-528.284E-9	
Y (m)	9.34745E-9	
Z (m)	9.33423E-9	
Z offset (m)	0E+0	
Settling time (s)	50E-3	
Integration time (s)	70E-3	
Z-Ctrl hold	TRUE	
Final Z (m)	N/A	
Start time	31.03.2023 14:43:17	
Filter type	None	
Order		
Cutoff frq		
Bias>Bias (V)	-3E+0	
Bias>Calibration (V/V)	-1E+0	
Bias>Offset (V)	0E+0	
Bias Spectroscopy>Sweep Start (V)	-3E+0	
Bias Spectroscopy>Sweep End (V)	3E+0	
Bias Spectroscopy>Num Pixel	600	
Bias Spectroscopy>Z Avg time (s)	100E-3	
Bias Spectroscopy>Z offset (m)	0E+0	
Bias Spectroscopy>1st Settling time (s)	100E-3	
Bias Spectroscopy>Settling time (s)	50E-3	
Bias Spectroscopy>Integration time (s)	70E-3	
Bias Spectroscopy>End Settling time (s)	50E-3	
Bias Spectroscopy>Z control time (s)	50E-3	
Bias Spectroscopy>Max Slew rate (V/s)	Inf	
Bias Spectroscopy>backward sweep	FALSE	
Bias Spectroscopy>Z-controller hold	TRUE	
Bias Spectroscopy>Number of sweeps	1	
Bias Spectroscopy>Channels	Current (A);Input 4 dissipation PLL (V);Input 7 (V);Input 8 (V);Bias (V)	
Bias Spectroscopy>Reset Bias	TRUE	
Bias Spectroscopy>Record final Z	FALSE	
Bias Spectroscopy>Lock-In run	FALSE	
Z-Controller>Z (m)	9.33406E-9	
Z-Controller>Controller name	log Current	
Z-Controller>Controller status	ON	
Z-Controller>Setpoint	300E-12	
Z-Controller>Setpoint unit	A	
Z-Controller>P gain	4E-12	
Z-Controller>I gain	22.2222E-9	
Z-Controller>Time const (s)	180E-6	
Z-Controller>TipLift (m)	0E+0	
Z-Controller>Switch off delay (s)	50E-3	

[DATA]
Bias calc (V)	Current (A)	LI Demod R (V)	LI Demod X (V)	LI Demod Y (V)	Bias (V)
-3.00000E+0	-299.844E-12	278.778E-3	226.095E-3	-158.440E-3	-3.00000E+0
-2.98998E+0	-297.224E-12	262.808E-3	223.343E-3	-133.727E-3	-2.98998E+0
-2.97997E+0	-295.464E-12	280.705E-3	236.525E-3	-148.040E-3	-2.97997E+0
-2.96995E+0	-293.567E-12	281.133E-3	228.188E-3	-161.346E-3	-2.96995E+0
-2.95993E+0	-291.247E-12	283.461E-3	234.458E-3	-156.397E-3	-2.95993E+0
-2.94992E+0	-289.180E-12	274.657E-3	228.089E-3	-150.658E-3	-2.94992E+0
-2.93990E+0	-286.986E-12	291.755E-3	247.956E-3	-151.057E-3	-2.93990E+0
-2.92988E+0	-285.011E-12	290.049E-3	255.302E-3	-134.384E-3	-2.92988E+0
-2.91987E+0	-281.882E-12	290.581E-3	245.664E-3	-153.615E-3	-2.91987E+0
-2.90985E+0	-280.220E-12	286.366E-3	249.272E-3	-139.111E-3	-2.90985E+0
-2.89983E+0	-278.152E-12	305.583E-3	273.496E-3	-134.461E-3	-2.89983E+0
-2.88982E+0	-275.326E-12	313.144E-3	271.235E-3	-155.191E-3	-2.88982E+0
-2.87980E+0	-273.349E-12	319.463E-3	276.168E-3	-158.375E-3	-2.87980E+0
-2.86978E+0	-270.876E-12	288.821E-3	261.988E-3	-120.128E-3	-2.86978E+0
-2.85977E+0	-268.442E-12	304.020E-3	262.063E-3	-153.031E-3	-2.85977E+0
-2.84975E+0	-266.267E-12	303.577E-3	266.812E-3	-143.711E-3	-2.84975E+0
-2.83973E+0	-263.647E-12	296.921E-3	261.669E-3	-138.130E-3	-2.83973E+0
-2.82972E+0	-261.288E-12	298.277E-3	257.981E-3	-148.696E-3	-2.82972E+0
-2.81970E+0	-259.662E-12	304.820E-3	261.660E-3	-153.356E-3	-2.81970E+0
-2.80968E+0	-257.364E-12	309.225E-3	270.854E-3	-147.345E-3	-2.80968E+0
-2.79967E+0	-255.387E-12	297.730E-3	255.781E-3	-151.253E-3	-2.79967E+0
-2.78965E+0	-252.584E-12	302.384E-3	262.537E-3	-148.956E-3	-2.78965E+0
-2.77963E+0	-250.464E-12	296.019E-3	260.181E-3	-140.353E-3	-2.77963E+0
-2.76962E+0	-248.325E-12	299.786E-3	254.540E-3	-157.543E-3	-2.76962E+0
-2.75960E+0	-245.938E-12	285.811E-3	244.630E-3	-146.932E-3	-2.75960E+0
-2.74958E+0	-243.940E-12	282.049E-3	245.983E-3	-136.850E-3	-2.74958E+0
-2.73957E+0	-242.325E-12	283.359E-3	245.083E-3	-141.042E-3	-2.73957E+0
-2.72955E+0	-239.528E-12	283.951E-3	236.837E-3	-155.795E-3	-2.72955E+0
-2.71953E+0	-237.264E-12	254.706E-3	204.780E-3	-150.577E-3	-2.71953E+0
-2.70952E+0	-234.555E-12	264.292E-3	208.169E-3	-162.761E-3	-2.70952E+0
-2.69950E+0	-233.675E-12	268.813E-3	215.923E-3	-158.980E-3	-2.69950E+0
-2.68948E+0	-232.609E-12	257.577E-3	197.387E-3	-164.946E-3	-2.68948E+0
-2.67947E+0	-229.938E-12	261.368E-3	206.265E-3	-160.163E-3	-2.67947E+0
-2.66945E+0	-227.789E-12	253.816E-3	197.239E-3	-159.760E-3	-2.66945E+0
-2.65943E+0	-227.045E-12	246.388E-3	185.437E-3	-161.605E-3	-2.65943E+0
-2.64942E+0	-224.815E-12	241.316E-3	183.414E-3	-156.642E-3	-2.64942E+0
-2.63940E+0	-223.197E-12	230.296E-3	180.851E-3	-142.179E-3	-2.63940E+0
-2.62938E+0	-221.689E-12	228.016E-3	170.232E-3	-151.635E-3	-2.62938E+0
-2.61937E+0	-219.832E-12	228.476E-3	174.087E-3	-147.886E-3	-2.61937E+0
-2.60935E+0	-219.139E-12	234.155E-3	178.458E-3	-151.349E-3	-2.60935E+0
-2.59933E+0	-217.857E-12	240.574E-3	182.617E-3	-156.232E-3	-2.59933E+0
-2.58932E+0	-216.026E-12	214.068E-3	157.904E-3	-144.298E-3	-2.58932E+0
-2.57930E+0	-213.985E-12	235.667E-3	167.899E-3	-165.518E-3	-2.57930E+0
-2.56928E+0	-212.478E-12	210.402E-3	165.335E-3	-129.884E-3	-2.56928E+0
-2.55927E+0	-211.170E-12	229.618E-3	163.782E-3	-160.773E-3	-2.55927E+0
-2.54925E+0	-210.421E-12	217.903E-3	161.392E-3	-146.402E-3	-2.54925E+0
-2.53923E+0	-208.802E-12	221.254E-3	152.275E-3	-160.429E-3	-2.53923E+0
-2.52922E+0	-206.991E-12	226.166E-3	170.954E-3	-147.816E-3	-2.52922E+0
-2.51920E+0	-206.201E-12	215.270E-3	150.655E-3	-153.214E-3	-2.51920E+0
-2.50918E+0	-204.371E-12	213.426E-3	151.013E-3	-150.922E-3	-2.50918E+0
-2.49917E+0	-202.619E-12	232.553E-3	160.039E-3	-168.527E-3	-2.49917E+0
-2.48915E+0	-201.278E-12	225.070E-3	160.957E-3	-157.406E-3	-2.48915E+0
-2.47913E+0	-200.066E-12	221.415E-3	163.548E-3	-149.181E-3	-2.47913E+0
-2.46912E+0	-199.320E-12	224.943E-3	163.863E-3	-153.799E-3	-2.46912E+0
-2.45910E+0	-197.738E-12	224.342E-3	152.884E-3	-163.754E-3	-2.45910E+0
-2.44908E+0	-196.092E-12	224.479E-3	160.194E-3	-157.066E-3	-2.44908E+0
-2.43906E+0	-195.282E-12	226.092E-3	168.469E-3	-150.480E-3	-2.43907E+0
-2.42905E+0	-193.149E-12	201.497E-3	147.260E-3	-137.580E-3	-2.42905E+0
-2.41903E+0	-192.021E-12	221.168E-3	150.128E-3	-162.498E-3	-2.41903E+0
-2.40901E+0	-191.107E-12	223.488E-3	145.754E-3	-169.355E-3	-2.40901E+0
-2.39900E+0	-189.872E-12	210.480E-3	153.943E-3	-143.620E-3	-2.39900E+0
-2.38898E+0	-188.396E-12	227.854E-3	164.762E-3	-156.891E-3	-2.38898E+0
-2.37896E+0	-186.996E-12	217.536E-3	154.428E-3	-153.222E-3	-2.37896E+0
-2.36895E+0	-185.710E-12	223.247E-3	162.533E-3	-153.047E-3	-2.36895E+0
-2.35893E+0	-184.315E-12	218.056E-3	150.939E-3	-157.501E-3	-2.35893E+0
-2.34891E+0	-182.625E-12	219.895E-3	151.940E-3	-158.665E-3	-2.34891E+0
-2.33890E+0	-181.868E-12	206.559E-3	136.137E-3	-155.575E-3	-2.33890E+0
-2.32888E+0	-180.169E-12	215.439E-3	149.002E-3	-155.738E-3	-2.32888E+0
-2.31886E+0	-178.841E-12	208.478E-3	148.659E-3	-146.170E-3	-2.31886E+0
-2.30885E+0	-178.056E-12	212.023E-3	140.101E-3	-157.885E-3	-2.30885E+0
-2.29883E+0	-176.673E-12	222.152E-3	148.790E-3	-164.940E-3	-2.29883E+0
-2.28881E+0	-175.479E-12	212.259E-3	146.155E-3	-153.724E-3	-2.28881E+0
-2.27880E+0	-174.024E-12	227.192E-3	158.041E-3	-163.435E-3	-2.27880E+0
-2.26878E+0	-172.531E-12	228.422E-3	151.337E-3	-171.040E-3	-2.26878E+0
-2.25876E+0	-171.246E-12	219.798E-3	158.296E-3	-152.340E-3	-2.25876E+0
-2.24875E+0	-169.457E-12	211.193E-3	153.956E-3	-144.426E-3	-2.24875E+0
-2.23873E+0	-168.826E-12	215.928E-3	152.223E-3	-153.027E-3	-2.23873E+0
-2.22871E+0	-167.459E-12	220.318E-3	158.131E-3	-153.488E-3	-2.22871E+0
-2.21870E+0	-166.019E-12	209.715E-3	149.249E-3	-147.521E-3	-2.21870E+0
-2.20868E+0	-164.713E-12	210.886E-3	155.924E-3	-141.892E-3	-2.20868E+0
-2.19866E+0	-163.123E-12	210.519E-3	149.748E-3	-147.943E-3	-2.19866E+0
-2.18865E+0	-161.686E-12	230.169E-3	163.692E-3	-161.541E-3	-2.18865E+0
-2.17863E+0	-160.652E-12	213.984E-3	142.013E-3	-160.018E-3	-2.17863E+0
-2.16861E+0	-159.418E-12	228.024E-3	164.919E-3	-157.119E-3	-2.16861E+0
-2.15860E+0	-158.007E-12	200.299E-3	143.695E-3	-139.665E-3	-2.15860E+0
-2.14858E+0	-157.056E-12	217.318E-3	150.989E-3	-156.390E-3	-2.14858E+0
-2.13856E+0	-155.356E-12	211.800E-3	156.064E-3	-142.960E-3	-2.13856E+0
-2.12855E+0	-153.997E-12	215.059E-3	155.620E-3	-148.319E-3	-2.12855E+0
-2.11853E+0	-152.620E-12	228.422E-3	165.189E-3	-157.574E-3	-2.11853E+0
-2.10851E+0	-151.374E-12	218.004E-3	144.648E-3	-163.187E-3	-2.10851E+0
-2.09850E+0	-150.209E-12	220.279E-3	153.699E-3	-157.445E-3	-2.09850E+0
-2.08848E+0	-148.895E-12	217.661E-3	157.298E-3	-150.431E-3	-2.08848E+0
-2.07846E+0	-147.681E-12	215.154E-3	156.657E-3	-146.976E-3	-2.07846E+0
-2.06845E+0	-146.358E-12	213.765E-3	152.592E-3	-149.603E-3	-2.06845E+0
-2.05843E+0	-145.149E-12	223.783E-3	151.287E-3	-164.669E-3	-2.05843E+0
-2.04841E+0	-143.625E-12	208.945E-3	146.303E-3	-149.144E-3	-2.04841E+0
-2.03840E+0	-142.415E-12	217.137E-3	158.589E-3	-148.056E-3	-2.03840E+0
-2.02838E+0	-141.177E-12	215.536E-3	145.561E-3	-158.589E-3	-2.02838E+0
-2.01836E+0	-140.179E-12	206.706E-3	140.763E-3	-151.174E-3	-2.01836E+0
-2.00835E+0	-138.724E-12	209.227E-3	137.178E-3	-157.672E-3	-2.00835E+0
-1.99833E+0	-137.645E-12	215.090E-3	143.442E-3	-160.579E-3	-1.99833E+0
-1.98831E+0	-136.366E-12	215.264E-3	138.544E-3	-164.986E-3	-1.98831E+0
-1.97830E+0	-135.142E-12	200.689E-3	119.861E-3	-161.013E-3	-1.97830E+0
-1.96828E+0	-134.197E-12	200.588E-3	130.329E-3	-151.975E-3	-1.96828E+0
-1.95826E+0	-132.989E-12	195.737E-3	122.107E-3	-153.111E-3	-1.95826E+0
-1.94825E+0	-131.975E-12	201.569E-3	118.548E-3	-163.146E-3	-1.94825E+0
-1.93823E+0	-130.846E-12	200.889E-3	116.785E-3	-163.812E-3	-1.93823E+0
-1.92821E+0	-129.884E-12	201.366E-3	125.824E-3	-157.093E-3	-1.92821E+0
-1.91820E+0	-128.971E-12	196.290E-3	120.602E-3	-154.902E-3	-1.91820E+0
-1.90818E+0	-128.024E-12	191.676E-3	109.631E-3	-157.266E-3	-1.90818E+0
-1.89816E+0	-126.990E-12	184.832E-3	105.169E-3	-152.262E-3	-1.89816E+0
-1.88815E+0	-125.972E-12	194.399E-3	102.030E-3	-165.602E-3	-1.88815E+0
-1.87813E+0	-125.425E-12	198.121E-3	105.328E-3	-167.908E-3	-1.87813E+0
-1.86811E+0	-124.627E-12	202.911E-3	117.913E-3	-164.969E-3	-1.86811E+0
-1.85810E+0	-123.957E-12	191.724E-3	105.309E-3	-160.216E-3	-1.85810E+0
-1.84808E+0	-123.323E-12	180.868E-3	95.0284E-3	-154.129E-3	-1.84808E+0
-1.83806E+0	-121.982E-12	175.580E-3	88.2509E-3	-152.109E-3	-1.83806E+0
-1.82805E+0	-121.220E-12	185.908E-3	115.067E-3	-145.975E-3	-1.82805E+0
-1.81803E+0	-120.654E-12	182.839E-3	88.4687E-3	-160.207E-3	-1.81803E+0
-1.80801E+0	-119.742E-12	170.950E-3	80.7267E-3	-151.044E-3	-1.80801E+0
-1.79800E+0	-119.350E-12	168.559E-3	80.8863E-3	-148.352E-3	-1.79800E+0
-1.78798E+0	-118.804E-12	203.050E-3	102.941E-3	-174.781E-3	-1.78798E+0
-1.77796E+0	-117.629E-12	186.717E-3	85.4652E-3	-166.219E-3	-1.77796E+0
-1.76795E+0	-117.036E-12	188.848E-3	89.5101E-3	-166.373E-3	-1.76795E+0
-1.75793E+0	-116.619E-12	174.648E-3	81.5174E-3	-154.431E-3	-1.75793E+0
-1.74791E+0	-116.102E-12	174.219E-3	69.4968E-3	-159.316E-3	-1.74791E+0
-1.73790E+0	-115.480E-12	173.340E-3	63.7625E-3	-161.584E-3	-1.73790E+0
-1.72788E+0	-115.207E-12	163.927E-3	60.2579E-3	-152.462E-3	-1.72788E+0
-1.71786E+0	-114.305E-12	183.126E-3	63.7781E-3	-171.933E-3	-1.71786E+0
-1.70785E+0	-114.027E-12	171.501E-3	61.5080E-3	-160.513E-3	-1.70785E+0
-1.69783E+0	-113.535E-12	169.115E-3	38.1462E-3	-165.100E-3	-1.69783E+0
-1.68781E+0	-113.128E-12	163.936E-3	52.0556E-3	-155.734E-3	-1.68781E+0
-1.67780E+0	-112.857E-12	165.355E-3	49.7653E-3	-157.958E-3	-1.67780E+0
-1.66778E+0	-112.544E-12	165.382E-3	25.0978E-3	-163.702E-3	-1.66778E+0
-1.65776E+0	-112.196E-12	167.092E-3	45.8860E-3	-160.449E-3	-1.65776E+0
-1.64775E+0	-111.819E-12	160.846E-3	36.8276E-3	-156.901E-3	-1.64775E+0
-1.63773E+0	-111.769E-12	173.933E-3	33.7497E-3	-170.887E-3	-1.63773E+0
-1.62771E+0	-111.259E-12	166.075E-3	35.3606E-3	-162.535E-3	-1.62771E+0
-1.61770E+0	-110.777E-12	174.366E-3	36.4376E-3	-170.923E-3	-1.61770E+0
-1.60768E+0	-110.818E-12	160.014E-3	21.2891E-3	-158.914E-3	-1.60768E+0
-1.59766E+0	-110.887E-12	163.102E-3	34.4349E-3	-159.562E-3	-1.59766E+0
-1.58765E+0	-110.598E-12	164.783E-3	32.2555E-3	-161.934E-3	-1.58765E+0
-1.57763E+0	-110.531E-12	169.756E-3	18.2119E-3	-168.919E-3	-1.57763E+0
-1.56761E+0	-110.342E-12	147.687E-3	18.9402E-3	-146.507E-3	-1.56761E+0
-1.55760E+0	-110.134E-12	157.420E-3	29.2306E-3	-155.013E-3	-1.55760E+0
-1.54758E+0	-110.046E-12	166.535E-3	25.2695E-3	-164.860E-3	-1.54758E+0
-1.53756E+0	-109.601E-12	158.229E-3	40.4327E-3	-152.851E-3	-1.53756E+0
-1.52755E+0	-109.355E-12	169.318E-3	55.6183E-3	-160.157E-3	-1.52755E+0
-1.51753E+0	-109.053E-12	159.401E-3	41.7382E-3	-154.070E-3	-1.51753E+0
-1.50751E+0	-108.875E-12	169.060E-3	45.7834E-3	-163.058E-3	-1.50751E+0
-1.49750E+0	-108.571E-12	171.509E-3	44.4711E-3	-166.008E-3	-1.49750E+0
-1.48748E+0	-108.454E-12	173.076E-3	35.1894E-3	-169.402E-3	-1.48748E+0
-1.47746E+0	-107.971E-12	151.988E-3	50.4757E-3	-143.894E-3	-1.47746E+0
-1.46745E+0	-107.341E-12	172.267E-3	61.7743E-3	-160.516E-3	-1.46745E+0
-1.45743E+0	-107.391E-12	155.965E-3	41.8306E-3	-150.689E-3	-1.45743E+0
-1.44741E+0	-107.157E-12	160.153E-3	43.8203E-3	-154.008E-3	-1.44741E+0
-1.43740E+0	-106.621E-12	165.018E-3	34.8433E-3	-161.257E-3	-1.43740E+0
-1.42738E+0	-106.442E-12	175.522E-3	50.7094E-3	-168.334E-3	-1.42738E+0
-1.41736E+0	-105.978E-12	162.525E-3	46.5659E-3	-156.171E-3	-1.41736E+0
-1.40735E+0	-105.818E-12	168.337E-3	40.4210E-3	-163.839E-3	-1.40735E+0
-1.39733E+0	-105.082E-12	165.821E-3	40.9939E-3	-160.758E-3	-1.39733E+0
-1.38731E+0	-105.255E-12	170.601E-3	52.8129E-3	-162.356E-3	-1.38731E+0
-1.37730E+0	-104.972E-12	170.492E-3	41.4303E-3	-165.797E-3	-1.37730E+0
-1.36728E+0	-104.413E-12	166.580E-3	59.6146E-3	-155.742E-3	-1.36728E+0
-1.35726E+0	-104.340E-12	167.177E-3	47.8246E-3	-160.105E-3	-1.35726E+0
-1.34725E+0	-104.002E-12	154.996E-3	40.4993E-3	-149.849E-3	-1.34725E+0
-1.33723E+0	-103.589E-12	164.257E-3	58.0017E-3	-153.993E-3	-1.33723E+0
-1.32721E+0	-103.618E-12	169.730E-3	47.3524E-3	-163.302E-3	-1.32721E+0
-1.31720E+0	-102.764E-12	169.041E-3	60.7500E-3	-158.024E-3	-1.31720E+0
-1.30718E+0	-102.448E-12	175.904E-3	62.1091E-3	-164.964E-3	-1.30718E+0
-1.29716E+0	-102.162E-12	172.230E-3	61.7975E-3	-160.969E-3	-1.29716E+0
-1.28715E+0	-101.569E-12	179.819E-3	51.4821E-3	-172.735E-3	-1.28715E+0
-1.27713E+0	-101.101E-12	189.512E-3	68.2449E-3	-177.259E-3	-1.27713E+0
-1.26711E+0	-100.749E-12	179.609E-3	70.9127E-3	-165.307E-3	-1.26711E+0
-1.25710E+0	-100.122E-12	175.701E-3	65.9471E-3	-163.151E-3	-1.25710E+0
-1.24708E+0	-99.4160E-12	163.784E-3	56.6470E-3	-154.058E-3	-1.24708E+0
-1.23706E+0	-99.3221E-12	175.239E-3	71.1442E-3	-160.358E-3	-1.23706E+0
-1.22705E+0	-98.7020E-12	173.725E-3	67.1180E-3	-160.349E-3	-1.22705E+0
-1.21703E+0	-97.8445E-12	173.223E-3	74.2818E-3	-156.791E-3	-1.21703E+0
-1.20701E+0	-97.5445E-12	177.069E-3	74.1934E-3	-161.028E-3	-1.20701E+0
-1.19700E+0	-96.7327E-12	179.049E-3	63.4265E-3	-167.618E-3	-1.19700E+0
-1.18698E+0	-96.6839E-12	164.019E-3	62.4570E-3	-152.079E-3	-1.18698E+0
-1.17696E+0	-95.9435E-12	182.531E-3	82.9598E-3	-162.645E-3	-1.17696E+0
-1.16694E+0	-95.0861E-12	172.438E-3	78.6364E-3	-153.398E-3	-1.16694E+0
-1.15693E+0	-94.8804E-12	165.392E-3	64.0032E-3	-152.991E-3	-1.15693E+0
-1.14691E+0	-94.4411E-12	171.438E-3	70.7820E-3	-156.021E-3	-1.14691E+0
-1.13689E+0	-93.5588E-12	171.992E-3	74.3019E-3	-155.514E-3	-1.13689E+0
-1.12688E+0	-93.2535E-12	170.114E-3	63.3273E-3	-158.225E-3	-1.12688E+0
-1.11686E+0	-92.6967E-12	170.807E-3	72.0337E-3	-155.162E-3	-1.11686E+0
-1.10684E+0	-92.2089E-12	175.440E-3	76.6996E-3	-158.195E-3	-1.10684E+0
-1.09683E+0	-91.3099E-12	170.653E-3	71.4114E-3	-154.975E-3	-1.09683E+0
-1.08681E+0	-90.8356E-12	189.173E-3	72.1275E-3	-175.014E-3	-1.08681E+0
-1.07679E+0	-90.3184E-12	186.044E-3	86.3107E-3	-164.897E-3	-1.07679E+0
-1.06678E+0	-89.3762E-12	183.577E-3	65.6469E-3	-171.595E-3	-1.06678E+0
-1.05676E+0	-88.9218E-12	187.555E-3	76.5772E-3	-171.076E-3	-1.05676E+0
-1.04674E+0	-88.4138E-12	167.597E-3	60.3824E-3	-156.707E-3	-1.04674E+0
-1.03673E+0	-87.8114E-12	171.533E-3	73.1247E-3	-155.220E-3	-1.03673E+0
-1.02671E+0	-87.2038E-12	172.960E-3	75.7217E-3	-155.835E-3	-1.02671E+0
-1.01669E+0	-86.6051E-12	177.142E-3	78.2295E-3	-158.942E-3	-1.01669E+0
-1.00668E+0	-86.0110E-12	174.360E-3	68.3629E-3	-160.860E-3	-1.00668E+0
-996.661E-3	-85.3378E-12	170.881E-3	70.8811E-3	-155.967E-3	-996.661E-3
-986.644E-3	-84.8042E-12	177.082E-3	80.7342E-3	-157.567E-3	-986.644E-3
-976.628E-3	-84.2785E-12	179.606E-3	88.8633E-3	-155.622E-3	-976.628E-3
-966.611E-3	-84.1791E-12	182.673E-3	82.6790E-3	-163.085E-3	-966.611E-3
-956.594E-3	-83.2355E-12	179.800E-3	91.1112E-3	-155.338E-3	-956.594E-3
-946.578E-3	-82.4153E-12	181.966E-3	90.9603E-3	-157.859E-3	-946.578E-3
-936.561E-3	-81.6406E-12	177.275E-3	87.0593E-3	-154.122E-3	-936.561E-3
-926.544E-3	-81.4165E-12	182.124E-3	81.4217E-3	-162.819E-3	-926.544E-3
-916.528E-3	-80.7347E-12	165.892E-3	84.1857E-3	-143.182E-3	-916.528E-3
-906.511E-3	-79.5807E-12	188.049E-3	90.7241E-3	-164.176E-3	-906.511E-3
-896.494E-3	-78.8625E-12	193.050E-3	126.312E-3	-146.261E-3	-896.494E-3
-886.477E-3	-78.1144E-12	191.545E-3	109.307E-3	-157.497E-3	-886.477E-3
-876.461E-3	-77.0605E-12	203.586E-3	122.766E-3	-162.539E-3	-876.461E-3
-866.444E-3	-76.1542E-12	196.974E-3	118.523E-3	-157.458E-3	-866.444E-3
-856.427E-3	-75.1007E-12	208.987E-3	136.593E-3	-157.556E-3	-856.427E-3
-846.411E-3	-73.9640E-12	215.211E-3	129.626E-3	-171.848E-3	-846.411E-3
-836.394E-3	-73.0314E-12	208.114E-3	132.978E-3	-160.175E-3	-836.394E-3
-826.377E-3	-72.1755E-12	199.488E-3	120.851E-3	-158.868E-3	-826.377E-3
-816.360E-3	-71.0445E-12	187.882E-3	105.586E-3	-155.742E-3	-816.361E-3
-806.344E-3	-70.1708E-12	212.147E-3	117.113E-3	-176.985E-3	-806.344E-3
-796.327E-3	-69.2672E-12	184.544E-3	117.791E-3	-142.192E-3	-796.327E-3
-786.310E-3	-68.3264E-12	181.455E-3	99.4723E-3	-151.669E-3	-786.310E-3
-776.294E-3	-67.4553E-12	178.241E-3	88.1969E-3	-155.298E-3	-776.294E-3
-766.277E-3	-66.8462E-12	184.913E-3	98.7896E-3	-156.730E-3	-766.277E-3
-756.260E-3	-66.0629E-12	185.649E-3	85.8413E-3	-164.974E-3	-756.260E-3
-746.244E-3	-65.2946E-12	185.407E-3	86.2031E-3	-164.541E-3	-746.244E-3
-736.227E-3	-64.5674E-12	185.497E-3	91.1903E-3	-161.940E-3	-736.227E-3
-726.210E-3	-63.9836E-12	188.311E-3	82.8731E-3	-169.225E-3	-726.210E-3
-716.194E-3	-63.2061E-12	179.439E-3	80.9391E-3	-160.390E-3	-716.194E-3
-706.177E-3	-62.7865E-12	190.787E-3	84.1264E-3	-171.178E-3	-706.177E-3
-696.160E-3	-62.1863E-12	176.974E-3	59.9881E-3	-166.742E-3	-696.160E-3
-686.144E-3	-61.6884E-12	171.011E-3	60.3406E-3	-160.168E-3	-686.144E-3
-676.127E-3	-61.1831E-12	176.933E-3	63.4784E-3	-165.481E-3	-676.127E-3
-666.110E-3	-60.6461E-12	181.745E-3	61.5543E-3	-171.086E-3	-666.110E-3
-656.093E-3	-60.3257E-12	177.304E-3	65.7155E-3	-164.927E-3	-656.093E-3
-646.077E-3	-59.7484E-12	179.705E-3	58.8605E-3	-169.953E-3	-646.077E-3
-636.060E-3	-59.2484E-12	185.443E-3	71.8782E-3	-170.582E-3	-636.060E-3
-626.043E-3	-58.7346E-12	169.318E-3	60.2271E-3	-158.395E-3	-626.043E-3
-616.027E-3	-58.4282E-12	168.209E-3	61.7794E-3	-156.914E-3	-616.027E-3
-606.010E-3	-58.0725E-12	163.134E-3	54.7961E-3	-154.093E-3	-606.010E-3
-595.993E-3	-57.5639E-12	178.957E-3	68.3775E-3	-165.801E-3	-595.993E-3
-585.977E-3	-57.0924E-12	157.875E-3	45.4879E-3	-151.658E-3	-585.977E-3
-575.960E-3	-56.6502E-12	178.092E-3	49.3884E-3	-171.200E-3	-575.960E-3
-565.943E-3	-56.3522E-12	171.738E-3	62.4318E-3	-160.179E-3	-565.943E-3
-555.927E-3	-55.8673E-12	162.220E-3	54.9250E-3	-152.016E-3	-555.927E-3
-545.910E-3	-55.4414E-12	171.182E-3	55.8843E-3	-162.021E-3	-545.910E-3
-535.893E-3	-55.2144E-12	178.226E-3	56.0762E-3	-169.188E-3	-535.893E-3
-525.877E-3	-54.6982E-12	164.658E-3	46.9262E-3	-157.427E-3	-525.876E-3
-515.860E-3	-54.4875E-12	175.228E-3	57.3230E-3	-165.956E-3	-515.860E-3
-505.843E-3	-54.2331E-12	180.115E-3	48.2379E-3	-173.706E-3	-505.843E-3
-495.826E-3	-53.7508E-12	165.971E-3	47.8568E-3	-159.247E-3	-495.826E-3
-485.810E-3	-53.4256E-12	172.013E-3	42.6968E-3	-166.901E-3	-485.810E-3
-475.793E-3	-53.0481E-12	172.026E-3	52.9853E-3	-164.019E-3	-475.793E-3
-465.776E-3	-52.6865E-12	165.753E-3	38.9539E-3	-161.305E-3	-465.776E-3
-455.760E-3	-52.3563E-12	172.945E-3	44.1793E-3	-167.494E-3	-455.760E-3
-445.743E-3	-51.9228E-12	157.163E-3	54.1267E-3	-147.706E-3	-445.743E-3
-435.726E-3	-51.4372E-12	173.703E-3	51.9289E-3	-165.541E-3	-435.726E-3
-425.709E-3	-50.8283E-12	174.741E-3	54.6048E-3	-166.225E-3	-425.710E-3
-415.693E-3	-50.6300E-12	180.369E-3	61.9198E-3	-169.650E-3	-415.693E-3
-405.676E-3	-50.0568E-12	167.549E-3	61.4789E-3	-156.310E-3	-405.676E-3
-395.659E-3	-49.4472E-12	184.363E-3	68.6977E-3	-171.153E-3	-395.659E-3
-385.643E-3	-48.7186E-12	170.814E-3	78.0116E-3	-151.833E-3	-385.643E-3
-375.626E-3	-48.2441E-12	189.635E-3	72.7798E-3	-175.458E-3	-375.626E-3
-365.609E-3	-47.7060E-12	178.597E-3	76.3325E-3	-161.724E-3	-365.609E-3
-355.593E-3	-46.9065E-12	181.038E-3	85.6585E-3	-159.170E-3	-355.593E-3
-345.576E-3	-46.4394E-12	175.602E-3	84.6851E-3	-153.452E-3	-345.576E-3
-335.559E-3	-45.6816E-12	183.520E-3	92.4128E-3	-158.956E-3	-335.559E-3
-325.542E-3	-44.9657E-12	188.799E-3	103.760E-3	-157.704E-3	-325.543E-3
-315.526E-3	-44.1993E-12	188.542E-3	97.8975E-3	-160.770E-3	-315.526E-3
-305.509E-3	-43.5429E-12	181.274E-3	100.530E-3	-151.141E-3	-305.509E-3
-295.492E-3	-42.7059E-12	182.974E-3	93.0316E-3	-157.983E-3	-295.493E-3
-285.476E-3	-41.7215E-12	190.694E-3	98.1052E-3	-163.630E-3	-285.476E-3
-275.459E-3	-41.0913E-12	183.242E-3	97.8828E-3	-155.109E-3	-275.459E-3
-265.442E-3	-40.4203E-12	182.812E-3	94.5114E-3	-156.247E-3	-265.442E-3
-255.426E-3	-39.5607E-12	175.085E-3	92.5205E-3	-148.658E-3	-255.426E-3
-245.409E-3	-38.5554E-12	174.903E-3	95.8699E-3	-146.679E-3	-245.409E-3
-235.392E-3	-37.7473E-12	196.947E-3	98.8359E-3	-170.688E-3	-235.392E-3
-225.376E-3	-37.0103E-12	187.795E-3	109.038E-3	-152.949E-3	-225.376E-3
-215.359E-3	-36.0662E-12	193.450E-3	107.740E-3	-160.958E-3	-215.359E-3
-205.342E-3	-34.9268E-12	210.284E-3	127.139E-3	-167.759E-3	-205.342E-3
-195.325E-3	-33.7272E-12	218.327E-3	143.221E-3	-164.600E-3	-195.326E-3
-185.309E-3	-32.5256E-12	214.467E-3	148.241E-3	-155.113E-3	-185.309E-3
-175.292E-3	-31.2238E-12	220.119E-3	166.440E-3	-143.569E-3	-175.292E-3
-165.275E-3	-29.6862E-12	219.597E-3	167.057E-3	-142.519E-3	-165.275E-3
-155.259E-3	-28.2630E-12	241.573E-3	188.876E-3	-150.461E-3	-155.259E-3
-145.242E-3	-26.6239E-12	249.306E-3	198.513E-3	-150.968E-3	-145.242E-3
-135.225E-3	-24.8618E-12	248.045E-3	192.991E-3	-155.809E-3	-135.225E-3
-125.209E-3	-22.9667E-12	256.634E-3	203.010E-3	-156.762E-3	-125.209E-3
-115.192E-3	-21.0901E-12	260.880E-3	209.278E-3	-155.287E-3	-115.192E-3
-105.175E-3	-19.2312E-12	275.491E-3	224.227E-3	-159.461E-3	-105.175E-3
-95.1586E-3	-17.3018E-12	266.407E-3	218.681E-3	-151.652E-3	-95.1586E-3
-85.1419E-3	-15.3314E-12	262.075E-3	215.139E-3	-149.285E-3	-85.1419E-3
-75.1252E-3	-13.4225E-12	266.381E-3	215.709E-3	-155.955E-3	-75.1252E-3
-65.1085E-3	-11.5066E-12	263.455E-3	210.744E-3	-157.868E-3	-65.1085E-3
-55.0919E-3	-9.67243E-12	258.653E-3	201.385E-3	-162.165E-3	-55.0918E-3
-45.0752E-3	-7.87168E-12	253.713E-3	201.055E-3	-154.737E-3	-45.0751E-3
-35.0585E-3	-6.04434E-12	249.416E-3	199.004E-3	-150.100E-3	-35.0584E-3
-25.0416E-3	-4.29481E-12	252.324E-3	197.207E-3	-157.339E-3	-25.0417E-3
-15.0249E-3	-2.58746E-12	238.040E-3	176.487E-3	-159.120E-3	-15.0250E-3
-5.00822E-3	-933.828E-15	242.232E-3	179.064E-3	-162.796E-3	-5.00835E-3
5.00846E-3	703.400E-15	233.375E-3	178.429E-3	-150.268E-3	5.00835E-3
15.0251E-3	2.32699E-12	230.218E-3	173.664E-3	-150.916E-3	15.0250E-3
25.0418E-3	3.89467E-12	232.450E-3	169.667E-3	-158.762E-3	25.0417E-3
35.0585E-3	5.47242E-12	239.560E-3	180.757E-3	-157.205E-3	35.0584E-3
45.0752E-3	7.01047E-12	241.483E-3	181.107E-3	-159.457E-3	45.0751E-3
55.0919E-3	8.55866E-12	238.738E-3	179.587E-3	-157.363E-3	55.0918E-3
65.1085E-3	10.0700E-12	216.768E-3	160.563E-3	-145.694E-3	65.1085E-3
75.1252E-3	11.5856E-12	219.007E-3	167.015E-3	-141.393E-3	75.1252E-3
85.1419E-3	13.1514E-12	236.718E-3	175.462E-3	-158.919E-3	85.1419E-3
95.1586E-3	14.6628E-12	236.565E-3	182.672E-3	-150.504E-3	95.1586E-3
105.175E-3	16.1213E-12	245.746E-3	187.450E-3	-158.840E-3	105.175E-3
115.192E-3	17.7628E-12	231.736E-3	177.657E-3	-148.143E-3	115.192E-3
125.209E-3	19.3893E-12	234.687E-3	175.221E-3	-155.845E-3	125.209E-3
135.226E-3	21.0319E-12	245.261E-3	191.419E-3	-153.456E-3	135.225E-3
145.242E-3	22.7158E-12	240.525E-3	186.352E-3	-152.181E-3	145.242E-3
155.259E-3	24.4737E-12	239.440E-3	180.227E-3	-157.124E-3	155.259E-3
165.276E-3	25.9951E-12	252.344E-3	191.555E-3	-164.163E-3	165.275E-3
175.292E-3	27.6690E-12	245.929E-3	190.549E-3	-155.068E-3	175.292E-3
185.309E-3	29.4039E-12	243.486E-3	186.825E-3	-156.219E-3	185.309E-3
195.326E-3	30.9086E-12	230.486E-3	170.267E-3	-155.122E-3	195.326E-3
205.342E-3	32.6316E-12	242.138E-3	176.891E-3	-165.281E-3	205.342E-3
215.359E-3	34.1252E-12	230.959E-3	178.039E-3	-147.341E-3	215.359E-3
225.376E-3	35.5959E-12	231.662E-3	185.388E-3	-138.707E-3	225.376E-3
235.392E-3	37.2214E-12	233.603E-3	172.690E-3	-156.903E-3	235.392E-3
245.409E-3	38.7281E-12	223.303E-3	166.714E-3	-148.625E-3	245.409E-3
255.426E-3	40.2828E-12	235.483E-3	173.970E-3	-158.385E-3	255.426E-3
265.442E-3	41.8148E-12	238.785E-3	180.930E-3	-155.896E-3	265.442E-3
275.459E-3	43.1830E-12	230.932E-3	166.893E-3	-159.035E-3	275.459E-3
285.476E-3	44.8066E-12	230.616E-3	166.568E-3	-159.510E-3	285.476E-3
295.493E-3	46.3720E-12	229.576E-3	175.691E-3	-147.699E-3	295.493E-3
305.509E-3	48.0397E-12	246.764E-3	191.783E-3	-154.992E-3	305.509E-3
315.526E-3	49.5156E-12	239.148E-3	183.163E-3	-153.351E-3	315.526E-3
325.543E-3	51.2778E-12	235.648E-3	177.427E-3	-154.865E-3	325.543E-3
335.559E-3	52.7769E-12	243.319E-3	194.780E-3	-145.951E-3	335.559E-3
345.576E-3	54.6732E-12	255.874E-3	203.561E-3	-154.965E-3	345.576E-3
355.593E-3	56.4516E-12	243.240E-3	194.804E-3	-145.608E-3	355.593E-3
365.609E-3	58.1770E-12	250.297E-3	202.963E-3	-146.538E-3	365.609E-3
375.626E-3	59.8694E-12	248.015E-3	191.862E-3	-157.201E-3	375.626E-3
385.643E-3	61.8344E-12	263.029E-3	219.408E-3	-144.638E-3	385.643E-3
395.659E-3	63.5942E-12	264.237E-3	215.165E-3	-153.326E-3	395.659E-3
405.676E-3	65.4807E-12	263.175E-3	215.231E-3	-151.251E-3	405.676E-3
415.693E-3	67.5828E-12	274.801E-3	225.965E-3	-155.798E-3	415.693E-3
425.709E-3	69.5586E-12	268.703E-3	223.334E-3	-149.106E-3	425.710E-3
435.726E-3	71.4964E-12	265.034E-3	218.583E-3	-149.576E-3	435.726E-3
445.743E-3	73.5572E-12	271.027E-3	221.703E-3	-155.034E-3	445.743E-3
455.760E-3	75.5208E-12	270.264E-3	224.109E-3	-150.594E-3	455.760E-3
465.776E-3	77.3365E-12	258.534E-3	215.303E-3	-142.667E-3	465.776E-3
475.793E-3	79.5773E-12	273.500E-3	227.056E-3	-152.432E-3	475.793E-3
485.810E-3	81.5174E-12	265.331E-3	215.675E-3	-154.024E-3	485.810E-3
495.826E-3	83.4676E-12	265.128E-3	216.335E-3	-153.051E-3	495.826E-3
505.843E-3	85.3371E-12	269.228E-3	217.419E-3	-158.453E-3	505.843E-3
515.860E-3	86.9691E-12	255.263E-3	206.147E-3	-150.549E-3	515.860E-3
525.877E-3	88.8785E-12	267.214E-3	216.525E-3	-156.336E-3	525.876E-3
535.893E-3	90.6049E-12	252.529E-3	202.058E-3	-151.659E-3	535.893E-3
545.910E-3	92.6727E-12	243.203E-3	196.439E-3	-143.311E-3	545.910E-3
555.927E-3	94.1872E-12	253.814E-3	197.934E-3	-158.821E-3	555.927E-3
565.943E-3	95.6496E-12	224.732E-3	170.661E-3	-145.973E-3	565.943E-3
575.960E-3	97.3723E-12	235.090E-3	185.177E-3	-144.814E-3	575.960E-3
585.977E-3	98.8524E-12	228.069E-3	167.315E-3	-154.819E-3	585.977E-3
595.993E-3	100.176E-12	226.233E-3	164.340E-3	-155.098E-3	595.993E-3
606.010E-3	101.875E-12	233.875E-3	165.702E-3	-164.919E-3	606.010E-3
616.027E-3	103.281E-12	224.725E-3	160.759E-3	-157.205E-3	616.027E-3
626.044E-3	104.576E-12	226.031E-3	163.861E-3	-155.796E-3	626.043E-3
636.060E-3	106.144E-12	219.267E-3	160.243E-3	-149.635E-3	636.060E-3
646.077E-3	107.443E-12	225.205E-3	159.891E-3	-158.550E-3	646.077E-3
656.094E-3	108.903E-12	230.742E-3	169.416E-3	-156.619E-3	656.093E-3
666.110E-3	110.463E-12	222.544E-3	161.514E-3	-153.018E-3	666.110E-3
676.127E-3	111.765E-12	226.661E-3	173.212E-3	-146.374E-3	676.127E-3
686.144E-3	113.133E-12	218.481E-3	150.447E-3	-158.210E-3	686.144E-3
696.160E-3	114.529E-12	221.175E-3	162.648E-3	-150.118E-3	696.160E-3
706.177E-3	115.819E-12	227.275E-3	161.674E-3	-159.809E-3	706.177E-3
716.194E-3	117.493E-12	225.612E-3	156.786E-3	-162.092E-3	716.194E-3
726.210E-3	118.693E-12	231.593E-3	170.730E-3	-156.408E-3	726.210E-3
736.227E-3	120.033E-12	207.730E-3	150.939E-3	-142.309E-3	736.227E-3
746.244E-3	121.247E-12	219.126E-3	162.982E-3	-146.488E-3	746.244E-3
756.260E-3	122.904E-12	221.666E-3	165.026E-3	-148.029E-3	756.260E-3
766.277E-3	124.251E-12	237.845E-3	170.454E-3	-165.968E-3	766.277E-3
776.294E-3	125.481E-12	223.656E-3	171.366E-3	-143.363E-3	776.294E-3
786.311E-3	127.193E-12	232.141E-3	178.666E-3	-148.176E-3	786.310E-3
796.327E-3	128.653E-12	229.412E-3	163.542E-3	-160.858E-3	796.327E-3
806.344E-3	130.114E-12	223.548E-3	164.759E-3	-150.273E-3	806.344E-3
816.361E-3	131.499E-12	219.043E-3	156.423E-3	-153.078E-3	816.361E-3
826.377E-3	133.037E-12	224.484E-3	160.801E-3	-156.762E-3	826.377E-3
836.394E-3	134.505E-12	229.740E-3	166.191E-3	-158.540E-3	836.394E-3
846.411E-3	135.770E-12	217.504E-3	153.812E-3	-153.674E-3	846.411E-3
856.427E-3	137.244E-12	213.378E-3	155.529E-3	-146.361E-3	856.427E-3
866.444E-3	138.431E-12	204.406E-3	146.042E-3	-142.699E-3	866.444E-3
876.461E-3	139.897E-12	209.766E-3	152.211E-3	-144.392E-3	876.461E-3
886.477E-3	141.213E-12	198.627E-3	143.468E-3	-136.821E-3	886.477E-3
896.494E-3	142.420E-12	219.879E-3	156.055E-3	-154.666E-3	896.494E-3
906.511E-3	143.680E-12	216.610E-3	150.002E-3	-156.137E-3	906.511E-3
916.528E-3	145.178E-12	219.095E-3	161.045E-3	-148.173E-3	916.528E-3
926.544E-3	146.621E-12	234.594E-3	154.957E-3	-175.927E-3	926.544E-3
936.561E-3	147.661E-12	226.233E-3	162.531E-3	-157.238E-3	936.561E-3
946.578E-3	149.054E-12	224.771E-3	162.281E-3	-155.101E-3	946.578E-3
956.594E-3	150.235E-12	226.944E-3	160.092E-3	-160.957E-3	956.594E-3
966.611E-3	152.048E-12	213.383E-3	154.186E-3	-147.196E-3	966.611E-3
976.628E-3	153.092E-12	215.126E-3	147.353E-3	-156.950E-3	976.628E-3
986.645E-3	154.849E-12	221.798E-3	159.501E-3	-151.898E-3	986.644E-3
996.661E-3	155.829E-12	223.304E-3	158.693E-3	-157.232E-3	996.661E-3
1.00668E+0	157.409E-12	221.760E-3	162.038E-3	-151.577E-3	1.00668E+0
1.01669E+0	158.769E-12	212.859E-3	153.978E-3	-146.948E-3	1.01669E+0
1.02671E+0	159.919E-12	227.331E-3	167.730E-3	-153.254E-3	1.02671E+0
1.03673E+0	161.565E-12	226.158E-3	155.033E-3	-164.845E-3	1.03673E+0
1.04674E+0	162.853E-12	227.804E-3	161.914E-3	-159.901E-3	1.04674E+0
1.05676E+0	164.194E-12	217.229E-3	151.147E-3	-156.260E-3	1.05676E+0
1.06678E+0	165.465E-12	207.641E-3	146.343E-3	-147.086E-3	1.06678E+0
1.07679E+0	166.863E-12	213.845E-3	155.026E-3	-147.439E-3	1.07679E+0
1.08681E+0	168.305E-12	223.501E-3	161.811E-3	-154.214E-3	1.08681E+0
1.09683E+0	169.290E-12	210.519E-3	147.791E-3	-149.871E-3	1.09683E+0
1.10684E+0	170.837E-12	235.009E-3	166.781E-3	-165.510E-3	1.10684E+0
1.11686E+0	172.287E-12	218.435E-3	160.598E-3	-148.143E-3	1.11686E+0
1.12688E+0	173.639E-12	223.750E-3	155.099E-3	-161.109E-3	1.12688E+0
1.13689E+0	175.411E-12	229.785E-3	169.032E-3	-155.691E-3	1.13689E+0
1.14691E+0	176.891E-12	234.419E-3	173.944E-3	-157.221E-3	1.14691E+0
1.15693E+0	178.050E-12	232.421E-3	175.890E-3	-152.100E-3	1.15693E+0
1.16694E+0	180.252E-12	227.090E-3	172.766E-3	-147.166E-3	1.16694E+0
1.17696E+0	181.516E-12	230.098E-3	183.593E-3	-138.601E-3	1.17696E+0
1.18698E+0	183.019E-12	231.341E-3	174.710E-3	-150.997E-3	1.18698E+0
1.19700E+0	184.927E-12	243.712E-3	179.634E-3	-164.785E-3	1.19700E+0
1.20701E+0	186.298E-12	242.643E-3	186.040E-3	-155.722E-3	1.20701E+0
1.21703E+0	187.595E-12	249.540E-3	192.464E-3	-158.728E-3	1.21703E+0
1.22705E+0	189.400E-12	231.323E-3	180.411E-3	-144.585E-3	1.22705E+0
1.23706E+0	191.247E-12	242.770E-3	189.112E-3	-152.075E-3	1.23706E+0
1.24708E+0	192.557E-12	241.613E-3	186.267E-3	-154.026E-3	1.24708E+0
1.25710E+0	194.537E-12	242.688E-3	185.489E-3	-156.088E-3	1.25710E+0
1.26711E+0	195.901E-12	245.529E-3	190.324E-3	-154.901E-3	1.26711E+0
1.27713E+0	197.504E-12	233.251E-3	179.212E-3	-149.271E-3	1.27713E+0
1.28715E+0	199.243E-12	245.462E-3	200.135E-3	-141.626E-3	1.28715E+0
1.29716E+0	200.986E-12	247.017E-3	200.199E-3	-144.320E-3	1.29716E+0
1.30718E+0	203.319E-12	245.512E-3	186.439E-3	-159.575E-3	1.30718E+0
1.31720E+0	204.890E-12	265.625E-3	205.560E-3	-168.201E-3	1.31720E+0
1.32721E+0	206.417E-12	257.845E-3	200.941E-3	-161.383E-3	1.32721E+0
1.33723E+0	207.851E-12	234.961E-3	187.436E-3	-141.580E-3	1.33723E+0
1.34725E+0	210.000E-12	241.477E-3	189.475E-3	-149.080E-3	1.34725E+0
1.35726E+0	211.126E-12	254.008E-3	202.450E-3	-153.331E-3	1.35726E+0
1.36728E+0	213.044E-12	259.290E-3	209.290E-3	-152.838E-3	1.36728E+0
1.37730E+0	215.114E-12	249.774E-3	202.234E-3	-146.396E-3	1.37730E+0
1.38731E+0	216.737E-12	264.181E-3	207.353E-3	-163.687E-3	1.38731E+0
1.39733E+0	218.558E-12	268.617E-3	211.522E-3	-164.995E-3	1.39733E+0
1.40735E+0	220.148E-12	253.169E-3	203.188E-3	-150.652E-3	1.40735E+0
1.41736E+0	222.276E-12	253.574E-3	200.981E-3	-154.687E-3	1.41736E+0
1.42738E+0	223.685E-12	251.060E-3	195.340E-3	-157.440E-3	1.42738E+0
1.43740E+0	225.717E-12	262.172E-3	212.763E-3	-152.971E-3	1.43740E+0
1.44741E+0	227.730E-12	245.694E-3	195.848E-3	-148.034E-3	1.44741E+0
1.45743E+0	228.922E-12	256.248E-3	204.356E-3	-154.405E-3	1.45743E+0
1.46745E+0	231.733E-12	255.261E-3	208.719E-3	-146.364E-3	1.46745E+0
1.47746E+0	233.608E-12	254.261E-3	210.097E-3	-142.926E-3	1.47746E+0
1.48748E+0	235.208E-12	271.637E-3	223.799E-3	-153.631E-3	1.48748E+0
1.49750E+0	236.960E-12	264.885E-3	213.026E-3	-157.363E-3	1.49750E+0
1.50751E+0	238.860E-12	267.496E-3	221.268E-3	-149.486E-3	1.50751E+0
1.51753E+0	240.543E-12	275.940E-3	219.976E-3	-166.287E-3	1.51753E+0
1.52755E+0	242.895E-12	262.639E-3	211.345E-3	-155.499E-3	1.52755E+0
1.53756E+0	244.478E-12	278.796E-3	228.795E-3	-158.484E-3	1.53756E+0
1.54758E+0	246.401E-12	269.844E-3	223.740E-3	-150.458E-3	1.54758E+0
1.55760E+0	248.857E-12	260.794E-3	214.135E-3	-148.286E-3	1.55760E+0
1.56761E+0	250.276E-12	262.445E-3	203.698E-3	-164.926E-3	1.56761E+0
1.57763E+0	252.101E-12	264.055E-3	220.139E-3	-145.201E-3	1.57763E+0
1.58765E+0	254.285E-12	257.117E-3	206.724E-3	-152.893E-3	1.58765E+0
1.59766E+0	255.717E-12	270.192E-3	221.574E-3	-154.329E-3	1.59766E+0
1.60768E+0	257.630E-12	262.143E-3	221.733E-3	-139.503E-3	1.60768E+0
1.61770E+0	260.146E-12	266.086E-3	210.181E-3	-162.769E-3	1.61770E+0
1.62771E+0	262.190E-12	271.186E-3	224.171E-3	-152.088E-3	1.62771E+0
1.63773E+0	264.163E-12	270.993E-3	229.301E-3	-143.972E-3	1.63773E+0
1.64775E+0	265.588E-12	265.293E-3	224.309E-3	-141.354E-3	1.64775E+0
1.65776E+0	267.853E-12	273.201E-3	223.721E-3	-156.539E-3	1.65776E+0
1.66778E+0	269.055E-12	267.160E-3	218.984E-3	-152.816E-3	1.66778E+0
1.67780E+0	271.544E-12	271.153E-3	225.028E-3	-150.444E-3	1.67780E+0
1.68781E+0	273.502E-12	281.950E-3	234.020E-3	-156.217E-3	1.68781E+0
1.69783E+0	275.687E-12	262.582E-3	221.578E-3	-140.117E-3	1.69783E+0
1.70785E+0	277.704E-12	272.640E-3	222.238E-3	-157.741E-3	1.70785E+0
1.71786E+0	280.231E-12	272.705E-3	229.267E-3	-147.134E-3	1.71786E+0
1.72788E+0	281.775E-12	291.926E-3	251.920E-3	-146.968E-3	1.72788E+0
1.73790E+0	284.905E-12	277.553E-3	236.597E-3	-144.363E-3	1.73790E+0
1.74791E+0	286.775E-12	289.521E-3	242.884E-3	-156.762E-3	1.74791E+0
1.75793E+0	287.949E-12	289.958E-3	250.993E-3	-144.255E-3	1.75793E+0
1.76795E+0	289.665E-12	291.747E-3	247.638E-3	-153.825E-3	1.76795E+0
1.77796E+0	292.391E-12	294.192E-3	256.171E-3	-144.054E-3	1.77796E+0
1.78798E+0	294.284E-12	289.363E-3	249.627E-3	-145.504E-3	1.78798E+0
1.79800E+0	296.936E-12	308.898E-3	267.287E-3	-154.071E-3	1.79800E+0
1.80801E+0	299.689E-12	287.532E-3	248.073E-3	-144.508E-3	1.80801E+0
1.81803E+0	302.173E-12	302.343E-3	262.578E-3	-149.400E-3	1.81803E+0
1.82805E+0	305.096E-12	310.655E-3	268.650E-3	-155.461E-3	1.82805E+0
1.83806E+0	306.220E-12	312.602E-3	276.264E-3	-145.500E-3	1.83806E+0
1.84808E+0	309.486E-12	305.288E-3	270.856E-3	-139.485E-3	1.84808E+0
1.85810E+0	311.335E-12	318.230E-3	284.201E-3	-142.062E-3	1.85810E+0
1.86811E+0	312.638E-12	314.283E-3	280.547E-3	-140.183E-3	1.86811E+0
1.87813E+0	317.072E-12	320.849E-3	289.756E-3	-136.369E-3	1.87813E+0
1.88815E+0	319.651E-12	317.007E-3	284.492E-3	-138.452E-3	1.88815E+0
1.89816E+0	322.248E-12	297.431E-3	261.946E-3	-140.175E-3	1.89816E+0
1.90818E+0	324.051E-12	318.492E-3	282.091E-3	-146.687E-3	1.90818E+0
1.91820E+0	327.877E-12	318.727E-3	286.649E-3	-137.918E-3	1.91820E+0
1.92821E+0	329.119E-12	301.190E-3	265.057E-3	-142.125E-3	1.92821E+0
1.93823E+0	332.333E-12	320.561E-3	285.490E-3	-144.738E-3	1.93823E+0
1.94825E+0	334.615E-12	318.183E-3	281.009E-3	-147.514E-3	1.94825E+0
1.95826E+0	336.292E-12	325.376E-3	286.767E-3	-151.901E-3	1.95826E+0
1.96828E+0	339.215E-12	327.436E-3	291.998E-3	-147.006E-3	1.96828E+0
1.97830E+0	341.699E-12	328.094E-3	298.012E-3	-135.399E-3	1.97830E+0
1.98831E+0	344.195E-12	315.326E-3	279.105E-3	-145.331E-3	1.98831E+0
1.99833E+0	347.342E-12	324.534E-3	291.228E-3	-141.898E-3	1.99833E+0
2.00835E+0	349.583E-12	331.719E-3	300.879E-3	-137.817E-3	2.00835E+0
2.01836E+0	352.876E-12	322.027E-3	291.381E-3	-135.592E-3	2.01836E+0
2.02838E+0	355.362E-12	331.727E-3	289.891E-3	-159.499E-3	2.02838E+0
2.03840E+0	357.013E-12	313.124E-3	284.221E-3	-129.176E-3	2.03840E+0
2.04841E+0	359.968E-12	319.931E-3	282.124E-3	-149.542E-3	2.04841E+0
2.05843E+0	362.991E-12	324.833E-3	288.706E-3	-147.777E-3	2.05843E+0
2.06845E+0	365.158E-12	305.873E-3	270.001E-3	-142.082E-3	2.06845E+0
2.07846E+0	368.219E-12	324.196E-3	291.239E-3	-141.350E-3	2.07846E+0
2.08848E+0	369.642E-12	311.526E-3	280.387E-3	-134.579E-3	2.08848E+0
2.09850E+0	373.214E-12	324.021E-3	286.991E-3	-149.363E-3	2.09850E+0
2.10851E+0	376.391E-12	316.692E-3	282.687E-3	-141.240E-3	2.10851E+0
2.11853E+0	378.229E-12	325.745E-3	284.925E-3	-156.835E-3	2.11853E+0
2.12855E+0	380.175E-12	335.970E-3	297.550E-3	-154.743E-3	2.12855E+0
2.13856E+0	383.105E-12	331.171E-3	301.857E-3	-134.956E-3	2.13856E+0
2.14858E+0	385.715E-12	331.766E-3	295.352E-3	-149.977E-3	2.14858E+0
2.15860E+0	387.883E-12	336.537E-3	298.974E-3	-152.993E-3	2.15860E+0
2.16861E+0	390.677E-12	339.482E-3	305.279E-3	-147.462E-3	2.16861E+0
2.17863E+0	392.736E-12	336.683E-3	308.014E-3	-134.572E-3	2.17863E+0
2.18865E+0	396.421E-12	354.545E-3	318.548E-3	-154.141E-3	2.18865E+0
2.19866E+0	398.905E-12	340.108E-3	305.395E-3	-148.511E-3	2.19866E+0
2.20868E+0	400.027E-12	344.901E-3	308.808E-3	-151.125E-3	2.20868E+0
2.21870E+0	403.080E-12	325.855E-3	292.076E-3	-143.134E-3	2.21870E+0
2.22871E+0	405.303E-12	335.302E-3	305.009E-3	-138.118E-3	2.22871E+0
2.23873E+0	408.306E-12	321.278E-3	290.822E-3	-134.669E-3	2.23873E+0
2.24875E+0	411.206E-12	341.481E-3	306.777E-3	-148.681E-3	2.24875E+0
2.25876E+0	413.941E-12	335.379E-3	297.350E-3	-153.715E-3	2.25876E+0
2.26878E+0	417.084E-12	343.980E-3	311.179E-3	-145.402E-3	2.26878E+0
2.27880E+0	419.824E-12	335.998E-3	301.030E-3	-148.223E-3	2.27880E+0
2.28881E+0	423.022E-12	339.647E-3	309.931E-3	-137.220E-3	2.28881E+0
2.29883E+0	425.417E-12	341.372E-3	305.738E-3	-150.238E-3	2.29883E+0
2.30885E+0	426.996E-12	334.519E-3	300.477E-3	-145.737E-3	2.30885E+0
2.31886E+0	430.456E-12	346.435E-3	317.655E-3	-137.076E-3	2.31886E+0
2.32888E+0	433.863E-12	343.591E-3	308.938E-3	-149.090E-3	2.32888E+0
2.33890E+0	435.822E-12	332.152E-3	300.461E-3	-140.117E-3	2.33890E+0
2.34892E+0	438.167E-12	337.563E-3	304.419E-3	-144.621E-3	2.34891E+0
2.35893E+0	441.216E-12	341.958E-3	298.969E-3	-164.713E-3	2.35893E+0
2.36895E+0	444.997E-12	324.173E-3	288.575E-3	-146.534E-3	2.36895E+0
2.37896E+0	445.986E-12	340.017E-3	308.733E-3	-140.603E-3	2.37896E+0
2.38898E+0	447.995E-12	332.437E-3	294.239E-3	-153.820E-3	2.38898E+0
2.39900E+0	451.188E-12	337.573E-3	304.693E-3	-142.964E-3	2.39900E+0
2.40902E+0	453.221E-12	338.261E-3	302.517E-3	-150.306E-3	2.40901E+0
2.41903E+0	455.789E-12	334.134E-3	299.305E-3	-146.578E-3	2.41903E+0
2.42905E+0	458.020E-12	330.314E-3	287.263E-3	-162.046E-3	2.42905E+0
2.43906E+0	461.892E-12	338.028E-3	303.730E-3	-146.840E-3	2.43907E+0
2.44908E+0	464.565E-12	330.409E-3	293.933E-3	-149.492E-3	2.44908E+0
2.45910E+0	467.595E-12	344.666E-3	306.898E-3	-155.547E-3	2.45910E+0
2.46912E+0	469.969E-12	336.440E-3	295.555E-3	-159.543E-3	2.46912E+0
2.47913E+0	472.768E-12	327.512E-3	296.865E-3	-136.489E-3	2.47913E+0
2.48915E+0	475.744E-12	319.731E-3	283.389E-3	-146.778E-3	2.48915E+0
2.49917E+0	477.681E-12	317.580E-3	285.140E-3	-138.597E-3	2.49917E+0
2.50918E+0	480.436E-12	336.470E-3	306.348E-3	-136.979E-3	2.50918E+0
2.51920E+0	483.219E-12	332.022E-3	296.131E-3	-148.822E-3	2.51920E+0
2.52922E+0	485.685E-12	342.321E-3	308.675E-3	-146.506E-3	2.52922E+0
2.53923E+0	488.363E-12	322.149E-3	290.230E-3	-138.465E-3	2.53923E+0
2.54925E+0	491.112E-12	344.491E-3	313.720E-3	-140.808E-3	2.54925E+0
2.55927E+0	493.160E-12	340.560E-3	305.352E-3	-149.088E-3	2.55927E+0
2.56928E+0	496.748E-12	333.941E-3	297.419E-3	-150.557E-3	2.56928E+0
2.57930E+0	498.150E-12	353.152E-3	318.606E-3	-150.705E-3	2.57930E+0
2.58932E+0	500.613E-12	336.966E-3	310.122E-3	-130.341E-3	2.58932E+0
2.59933E+0	504.995E-12	361.637E-3	326.965E-3	-153.077E-3	2.59933E+0
2.60935E+0	507.114E-12	348.363E-3	318.111E-3	-140.353E-3	2.60935E+0
2.61937E+0	509.991E-12	350.177E-3	325.643E-3	-126.663E-3	2.61937E+0
2.62938E+0	513.525E-12	346.054E-3	315.910E-3	-139.543E-3	2.62938E+0
2.63940E+0	515.111E-12	367.274E-3	334.034E-3	-150.595E-3	2.63940E+0
2.64942E+0	518.317E-12	359.710E-3	331.344E-3	-137.667E-3	2.64942E+0
2.65943E+0	522.245E-12	351.340E-3	320.728E-3	-140.701E-3	2.65943E+0
2.66945E+0	524.581E-12	374.124E-3	346.098E-3	-138.495E-3	2.66945E+0
2.67947E+0	526.786E-12	368.371E-3	336.278E-3	-148.871E-3	2.67947E+0
2.68948E+0	529.904E-12	368.127E-3	336.608E-3	-146.906E-3	2.68948E+0
2.69950E+0	533.014E-12	380.288E-3	343.923E-3	-160.935E-3	2.69950E+0
2.70952E+0	536.006E-12	375.359E-3	349.569E-3	-134.741E-3	2.70952E+0
2.71953E+0	539.732E-12	362.502E-3	331.825E-3	-143.980E-3	2.71953E+0
2.72955E+0	542.713E-12	367.524E-3	333.133E-3	-153.128E-3	2.72955E+0
2.73957E+0	546.229E-12	379.032E-3	348.264E-3	-146.884E-3	2.73957E+0
2.74958E+0	548.444E-12	378.331E-3	340.771E-3	-162.677E-3	2.74958E+0
2.75960E+0	550.276E-12	370.145E-3	339.684E-3	-144.246E-3	2.75960E+0
2.76962E+0	552.947E-12	385.031E-3	350.835E-3	-156.664E-3	2.76962E+0
2.77963E+0	555.386E-12	378.965E-3	348.181E-3	-148.093E-3	2.77963E+0
2.78965E+0	559.681E-12	386.505E-3	357.154E-3	-145.891E-3	2.78965E+0
2.79967E+0	562.232E-12	372.249E-3	345.541E-3	-136.335E-3	2.79967E+0
2.80968E+0	565.254E-12	365.231E-3	339.209E-3	-133.542E-3	2.80968E+0
2.81970E+0	568.395E-12	372.980E-3	343.008E-3	-144.733E-3	2.81970E+0
2.82972E+0	570.893E-12	377.987E-3	349.020E-3	-142.337E-3	2.82972E+0
2.83973E+0	574.339E-12	386.920E-3	364.639E-3	-126.679E-3	2.83973E+0
2.84975E+0	577.450E-12	385.766E-3	351.284E-3	-157.033E-3	2.84975E+0
2.85977E+0	580.816E-12	390.409E-3	368.038E-3	-127.931E-3	2.85977E+0
2.86978E+0	583.825E-12	396.910E-3	373.768E-3	-130.012E-3	2.86978E+0
2.87980E+0	586.558E-12	390.842E-3	362.931E-3	-143.186E-3	2.87980E+0
2.88982E+0	590.302E-12	398.456E-3	372.861E-3	-137.755E-3	2.88982E+0
2.89983E+0	593.852E-12	380.377E-3	348.669E-3	-149.907E-3	2.89983E+0
2.90985E+0	596.952E-12	395.296E-3	365.895E-3	-146.740E-3	2.90985E+0
2.91987E+0	599.969E-12	392.719E-3	363.010E-3	-147.115E-3	2.91987E+0
2.92988E+0	602.640E-12	394.693E-3	362.398E-3	-154.279E-3	2.92988E+0
2.93990E+0	605.333E-12	398.470E-3	371.718E-3	-140.585E-3	2.93990E+0
2.94992E+0	610.300E-12	409.601E-3	383.221E-3	-140.587E-3	2.94992E+0
2.95993E+0	612.731E-12	401.794E-3	376.914E-3	-133.255E-3	2.95993E+0
2.96995E+0	616.153E-12	406.182E-3	384.495E-3	-126.633E-3	2.96995E+0
2.97997E+0	618.614E-12	403.432E-3	377.633E-3	-138.029E-3	2.97997E+0
2.98998E+0	621.924E-12	428.436E-3	402.310E-3	-142.285E-3	2.98998E+0
3.00000E+0	625.562E-12	419.867E-3	394.213E-3	-142.025E-3	3.00000E+0
